ms,resistance
1,391.0
2,392.00
3,392.00
4,392.00
5,392.00
6,392.00
7,392.00
8,393.00
9,392.00
10,392.00
11,392.00
12,392.00
13,391.00
14,392.00
15,392.00
16,392.00
17,392.00
18,391.00
19,392.00
20,392.00
21,392.00
22,392.00
23,392.00
24,392.00
25,391.00
26,392.00
27,392.00
28,392.00
29,392.00
30,392.00
31,391.00
32,392.00
33,392.00
34,392.00
35,392.00
36,392.00
37,392.00
38,391.00
39,392.00
40,392.00
41,392.00
42,392.00
43,392.00
44,391.00
45,391.00
46,392.00
47,392.00
48,392.00
49,392.00
50,392.00
51,392.00
52,392.00
53,392.00
54,391.00
55,392.00
56,392.00
57,391.00
58,392.00
59,392.00
60,391.00
61,392.00
62,392.00
63,391.00
64,391.00
65,391.00
66,392.00
67,391.00
68,392.00
69,392.00
70,391.00
71,391.00
72,391.00
73,392.00
74,391.00
75,392.00
76,391.00
77,391.00
78,391.00
79,392.00
80,392.00
81,391.00
82,391.00
83,392.00
84,392.00
85,391.00
86,392.00
87,391.00
88,392.00
89,391.00
90,392.00
91,391.00
92,392.00
93,391.00
94,391.00
95,391.00
96,391.00
97,391.00
98,391.00
99,392.00
100,392.00
101,391.00
102,391.00
103,391.00
104,391.00
105,391.00
106,391.00
107,391.00
108,391.00
109,391.00
110,391.00
111,391.00
112,391.00
113,391.00
114,391.00
115,391.00
116,392.00
117,392.00
118,391.00
119,391.00
120,391.00
121,391.00
122,391.00
123,391.00
124,391.00
125,391.00
126,391.00
127,391.00
128,392.00
129,391.00
130,391.00
131,390.00
132,391.00
133,391.00
134,391.00
135,391.00
136,391.00
137,391.00
138,391.00
139,391.00
140,390.00
141,391.00
142,391.00
143,391.00
144,391.00
145,391.00
146,391.00
147,391.00
148,391.00
149,390.00
150,391.00
151,391.00
152,391.00
153,391.00
154,391.00
155,391.00
156,391.00
157,391.00
158,391.00
159,390.00
160,390.00
161,391.00
162,390.00
163,391.00
164,391.00
165,391.00
166,391.00
167,391.00
168,390.00
169,390.00
170,391.00
171,391.00
172,390.00
173,391.00
174,391.00
175,391.00
176,391.00
177,391.00
178,391.00
179,391.00
180,391.00
181,390.00
182,390.00
183,391.00
184,391.00
185,391.00
186,391.00
187,390.00
188,390.00
189,391.00
190,390.00
191,391.00
192,391.00
193,391.00
194,390.00
195,391.00
196,391.00
197,391.00
198,390.00
199,391.00
200,392.00
201,390.00
202,391.00
203,390.00
204,390.00
205,389.00
206,391.00
207,390.00
208,391.00
209,390.00
210,390.00
211,390.00
212,391.00
213,390.00
214,391.00
215,391.00
216,390.00
217,390.00
218,390.00
219,390.00
220,390.00
221,390.00
222,390.00
223,390.00
224,391.00
225,391.00
226,391.00
227,390.00
228,390.00
229,390.00
230,391.00
231,390.00
232,391.00
233,391.00
234,390.00
235,391.00
236,391.00
237,390.00
238,391.00
239,390.00
240,390.00
241,390.00
242,390.00
243,390.00
244,390.00
245,390.00
246,391.00
247,390.00
248,390.00
249,390.00
250,390.00
251,391.00
252,390.00
253,390.00
254,390.00
255,390.00
256,390.00
257,390.00
258,390.00
259,390.00
260,390.00
261,390.00
262,390.00
263,390.00
264,390.00
265,390.00
266,390.00
267,390.00
268,391.00
269,390.00
270,390.00
271,390.00
272,390.00
273,390.00
274,390.00
275,390.00
276,390.00
277,390.00
278,390.00
279,390.00
280,390.00
281,390.00
282,390.00
283,390.00
284,390.00
285,390.00
286,390.00
287,390.00
288,390.00
289,390.00
290,390.00
291,390.00
292,390.00
293,390.00
294,390.00
295,390.00
296,390.00
297,390.00
298,390.00
299,390.00
300,390.00
301,390.00
302,390.00
303,390.00
304,390.00
305,390.00
306,389.00
307,390.00
308,390.00
309,390.00
310,390.00
311,390.00
312,390.00
313,390.00
314,390.00
315,390.00
316,390.00
317,390.00
318,390.00
319,390.00
320,390.00
321,390.00
322,389.00
323,390.00
324,389.00
325,390.00
326,390.00
327,390.00
328,389.00
329,389.00
330,389.00
331,390.00
332,390.00
333,389.00
334,390.00
335,390.00
336,390.00
337,390.00
338,389.00
339,390.00
340,390.00
341,390.00
342,390.00
343,389.00
344,389.00
345,389.00
346,389.00
347,390.00
348,390.00
349,390.00
350,390.00
351,390.00
352,389.00
353,390.00
354,389.00
355,389.00
356,390.00
357,390.00
358,390.00
359,389.00
360,390.00
361,389.00
362,389.00
363,389.00
364,390.00
365,389.00
366,389.00
367,389.00
368,389.00
369,389.00
370,389.00
371,390.00
372,389.00
373,389.00
374,390.00
375,390.00
376,389.00
377,389.00
378,389.00
379,390.00
380,389.00
381,390.00
382,389.00
383,389.00
384,389.00
385,390.00
386,389.00
387,389.00
388,389.00
389,389.00
390,389.00
391,389.00
392,389.00
393,389.00
394,390.00
395,389.00
396,389.00
397,389.00
398,389.00
399,389.00
400,389.00
401,389.00
402,389.00
403,389.00
404,389.00
405,389.00
406,390.00
407,389.00
408,389.00
409,389.00
410,389.00
411,389.00
412,389.00
413,389.00
414,389.00
415,389.00
416,389.00
417,389.00
418,389.00
419,389.00
420,389.00
421,389.00
422,389.00
423,389.00
424,389.00
425,389.00
426,389.00
427,389.00
428,389.00
429,389.00
430,389.00
431,388.00
432,389.00
433,389.00
434,389.00
435,389.00
436,389.00
437,389.00
438,389.00
439,389.00
440,388.00
441,389.00
442,389.00
443,389.00
444,389.00
445,389.00
446,389.00
447,389.00
448,389.00
449,389.00
450,389.00
451,389.00
452,389.00
453,389.00
454,389.00
455,389.00
456,389.00
457,389.00
458,389.00
459,389.00
460,389.00
461,388.00
462,389.00
463,389.00
464,388.00
465,389.00
466,389.00
467,389.00
468,388.00
469,389.00
470,389.00
471,389.00
472,389.00
473,389.00
474,388.00
475,389.00
476,389.00
477,389.00
478,389.00
479,389.00
480,389.00
481,389.00
482,389.00
483,388.00
484,389.00
485,389.00
486,389.00
487,389.00
488,389.00
489,389.00
490,388.00
491,389.00
492,388.00
493,389.00
494,389.00
495,389.00
496,389.00
497,389.00
498,388.00
499,389.00
500,388.00
501,389.00
502,389.00
503,388.00
504,389.00
505,389.00
506,388.00
507,389.00
508,388.00
509,388.00
510,388.00
511,389.00
512,388.00
513,388.00
514,389.00
515,388.00
516,388.00
517,389.00
518,389.00
519,388.00
520,389.00
521,388.00
522,388.00
523,388.00
524,388.00
525,388.00
526,388.00
527,389.00
528,389.00
529,388.00
530,388.00
531,389.00
532,389.00
533,389.00
534,388.00
535,388.00
536,388.00
537,389.00
538,388.00
539,388.00
540,389.00
541,389.00
542,388.00
543,388.00
544,388.00
545,388.00
546,388.00
547,388.00
548,389.00
549,388.00
550,388.00
551,388.00
552,388.00
553,388.00
554,388.00
555,389.00
556,388.00
557,388.00
558,388.00
559,388.00
560,388.00
561,388.00
562,388.00
563,388.00
564,388.00
565,388.00
566,388.00
567,388.00
568,388.00
569,388.00
570,388.00
571,388.00
572,388.00
573,388.00
574,388.00
575,388.00
576,388.00
577,387.00
578,388.00
579,387.00
580,388.00
581,388.00
582,388.00
583,389.00
584,388.00
585,388.00
586,388.00
587,388.00
588,388.00
589,388.00
590,388.00
591,388.00
592,388.00
593,388.00
594,388.00
595,388.00
596,388.00
597,388.00
598,388.00
599,388.00
600,388.00
601,388.00
602,388.00
603,388.00
604,388.00
605,389.00
606,388.00
607,388.00
608,388.00
609,388.00
610,388.00
611,388.00
612,388.00
613,388.00
614,388.00
615,388.00
616,388.00
617,388.00
618,388.00
619,388.00
620,388.00
621,388.00
622,388.00
623,388.00
624,388.00
625,388.00
626,388.00
627,387.00
628,388.00
629,388.00
630,388.00
631,388.00
632,388.00
633,388.00
634,388.00
635,388.00
636,389.00
637,388.00
638,388.00
639,388.00
640,388.00
641,388.00
642,388.00
643,387.00
644,388.00
645,388.00
646,388.00
647,388.00
648,388.00
649,388.00
650,388.00
651,388.00
652,388.00
653,388.00
654,388.00
655,388.00
656,388.00
657,388.00
658,387.00
659,388.00
660,388.00
661,387.00
662,388.00
663,388.00
664,388.00
665,387.00
666,388.00
667,388.00
668,388.00
669,388.00
670,388.00
671,387.00
672,388.00
673,387.00
674,387.00
675,388.00
676,388.00
677,388.00
678,388.00
679,388.00
680,387.00
681,388.00
682,387.00
683,388.00
684,388.00
685,387.00
686,388.00
687,388.00
688,388.00
689,387.00
690,388.00
691,388.00
692,388.00
693,388.00
694,388.00
695,388.00
696,388.00
697,388.00
698,387.00
699,387.00
700,388.00
701,388.00
702,387.00
703,388.00
704,388.00
705,387.00
706,387.00
707,387.00
708,387.00
709,387.00
710,387.00
711,388.00
712,387.00
713,387.00
714,387.00
715,387.00
716,388.00
717,387.00
718,387.00
719,387.00
720,388.00
721,387.00
722,387.00
723,387.00
724,388.00
725,387.00
726,388.00
727,387.00
728,388.00
729,388.00
730,387.00
731,387.00
732,387.00
733,387.00
734,387.00
735,387.00
736,388.00
737,388.00
738,387.00
739,387.00
740,387.00
741,387.00
742,387.00
743,387.00
744,388.00
745,387.00
746,388.00
747,387.00
748,387.00
749,388.00
750,387.00
751,387.00
752,387.00
753,387.00
754,387.00
755,387.00
756,387.00
757,387.00
758,387.00
759,387.00
760,387.00
761,388.00
762,387.00
763,387.00
764,387.00
765,387.00
766,387.00
767,387.00
768,387.00
769,388.00
770,387.00
771,387.00
772,387.00
773,387.00
774,387.00
775,387.00
776,387.00
777,387.00
778,387.00
779,387.00
780,387.00
781,387.00
782,387.00
783,387.00
784,387.00
785,387.00
786,386.00
787,387.00
788,387.00
789,387.00
790,387.00
791,387.00
792,387.00
793,387.00
794,387.00
795,387.00
796,387.00
797,387.00
798,387.00
799,387.00
800,387.00
801,387.00
802,387.00
803,387.00
804,387.00
805,387.00
806,387.00
807,387.00
808,387.00
809,387.00
810,387.00
811,387.00
812,387.00
813,387.00
814,387.00
815,387.00
816,387.00
817,387.00
818,387.00
819,385.00
820,387.00
821,387.00
822,387.00
823,387.00
824,387.00
825,387.00
826,387.00
827,387.00
828,387.00
829,387.00
830,387.00
831,387.00
832,387.00
833,386.00
834,386.00
835,387.00
836,387.00
837,387.00
838,387.00
839,387.00
840,387.00
841,387.00
842,387.00
843,387.00
844,387.00
845,387.00
846,387.00
847,387.00
848,387.00
849,387.00
850,387.00
851,387.00
852,387.00
853,387.00
854,387.00
855,387.00
856,387.00
857,387.00
858,386.00
859,387.00
860,387.00
861,387.00
862,386.00
863,387.00
864,386.00
865,386.00
866,387.00
867,387.00
868,387.00
869,387.00
870,387.00
871,386.00
872,386.00
873,386.00
874,387.00
875,387.00
876,386.00
877,387.00
878,387.00
879,387.00
880,387.00
881,386.00
882,387.00
883,387.00
884,386.00
885,387.00
886,387.00
887,387.00
888,386.00
889,387.00
890,386.00
891,386.00
892,387.00
893,386.00
894,387.00
895,387.00
896,386.00
897,387.00
898,387.00
899,387.00
900,386.00
901,386.00
902,387.00
903,387.00
904,386.00
905,386.00
906,387.00
907,387.00
908,386.00
909,387.00
910,387.00
911,387.00
912,386.00
913,387.00
914,386.00
915,386.00
916,386.00
917,387.00
918,386.00
919,387.00
920,386.00
921,386.00
922,386.00
923,386.00
924,386.00
925,387.00
926,387.00
927,386.00
928,386.00
929,386.00
930,386.00
931,387.00
932,387.00
933,386.00
934,386.00
935,387.00
936,386.00
937,387.00
938,387.00
939,387.00
940,386.00
941,387.00
942,386.00
943,387.00
944,386.00
945,387.00
946,386.00
947,387.00
948,387.00
949,386.00
950,386.00
951,387.00
952,386.00
953,386.00
954,386.00
955,386.00
956,386.00
957,387.00
958,386.00
959,386.00
960,387.00
961,387.00
962,386.00
963,387.00
964,386.00
965,386.00
966,387.00
967,386.00
968,386.00
969,386.00
970,386.00
971,387.00
972,386.00
973,386.00
974,387.00
975,387.00
976,386.00
977,386.00
978,387.00
979,387.00
980,387.00
981,387.00
982,387.00
983,387.00
984,387.00
985,387.00
986,387.00
987,387.00
988,387.00
989,387.00
990,387.00
991,387.00
992,387.00
993,387.00
994,387.00
995,387.00
996,386.00
997,387.00
998,387.00
999,387.00
1000,388.00
1001,387.00
1002,388.00
1003,388.00
1004,388.00
1005,389.00
1006,390.00
1007,390.00
1008,390.00
1009,390.00
1010,390.00
1011,390.00
1012,392.00
1013,391.00
1014,392.00
1015,392.00
1016,392.00
1017,391.00
1018,392.00
1019,392.00
1020,392.00
1021,393.00
1022,393.00
1023,394.00
1024,394.00
1025,397.00
1026,399.00
1027,400.00
1028,401.00
1029,401.00
1030,401.00
1031,404.00
1032,407.00
1033,410.00
1034,414.00
1035,417.00
1036,420.00
1037,423.00
1038,428.00
1039,435.00
1040,441.00
1041,448.00
1042,454.00
1043,460.00
1044,467.00
1045,478.00
1046,489.00
1047,499.00
1048,504.00
1049,508.00
1050,508.00
1051,508.00
1052,514.00
1053,524.00
1054,532.00
1055,537.00
1056,542.00
1057,551.00
1058,565.00
1059,577.00
1060,586.00
1061,591.00
1062,594.00
1063,596.00
1064,597.00
1065,597.00
1066,596.00
1067,596.00
1068,595.00
1069,598.00
1070,600.00
1071,600.00
1072,601.00
1073,601.00
1074,600.00
1075,599.00
1076,599.00
1077,600.00
1078,600.00
1079,601.00
1080,600.00
1081,599.00
1082,597.00
1083,594.00
1084,591.00
1085,589.00
1086,587.00
1087,586.00
1088,588.00
1089,590.00
1090,593.00
1091,595.00
1092,598.00
1093,599.00
1094,598.00
1095,595.00
1096,591.00
1097,585.00
1098,579.00
1099,573.00
1100,567.00
1101,560.00
1102,553.00
1103,546.00
1104,540.00
1105,533.00
1106,527.00
1107,518.00
1108,513.00
1109,505.00
1110,498.00
1111,491.00
1112,484.00
1113,478.00
1114,474.00
1115,469.00
1116,465.00
1117,461.00
1118,458.00
1119,455.00
1120,454.00
1121,451.00
1122,448.00
1123,446.00
1124,443.00
1125,443.00
1126,442.00
1127,440.00
1128,438.00
1129,438.00
1130,434.00
1131,436.00
1132,435.00
1133,434.00
1134,433.00
1135,431.00
1136,430.00
1137,429.00
1138,429.00
1139,428.00
1140,427.00
1141,427.00
1142,426.00
1143,426.00
1144,425.00
1145,425.00
1146,426.00
1147,425.00
1148,425.00
1149,425.00
1150,424.00
1151,424.00
1152,424.00
1153,424.00
1154,423.00
1155,423.00
1156,423.00
1157,423.00
1158,423.00
1159,422.00
1160,423.00
1161,422.00
1162,421.00
1163,421.00
1164,420.00
1165,419.00
1166,419.00
1167,420.00
1168,421.00
1169,422.00
1170,422.00
1171,422.00
1172,423.00
1173,423.00
1174,424.00
1175,425.00
1176,426.00
1177,427.00
1178,428.00
1179,429.00
1180,430.00
1181,432.00
1182,435.00
1183,440.00
1184,444.00
1185,448.00
1186,454.00
1187,460.00
1188,466.00
1189,473.00
1190,480.00
1191,483.00
1192,486.00
1193,490.00
1194,496.00
1195,503.00
1196,510.00
1197,516.00
1198,523.00
1199,531.00
1200,540.00
1201,549.00
1202,558.00
1203,566.00
1204,571.00
1205,576.00
1206,579.00
1207,581.00
1208,582.00
1209,582.00
1210,583.00
1211,582.00
1212,583.00
1213,583.00
1214,585.00
1215,586.00
1216,587.00
1217,590.00
1218,592.00
1219,595.00
1220,596.00
1221,597.00
1222,598.00
1223,599.00
1224,599.00
1225,599.00
1226,598.00
1227,598.00
1228,599.00
1229,599.00
1230,599.00
1231,599.00
1232,598.00
1233,599.00
1234,598.00
1235,599.00
1236,599.00
1237,599.00
1238,598.00
1239,599.00
1240,598.00
1241,599.00
1242,599.00
1243,599.00
1244,598.00
1245,598.00
1246,597.00
1247,597.00
1248,598.00
1249,599.00
1250,598.00
1251,599.00
1252,599.00
1253,598.00
1254,597.00
1255,595.00
1256,594.00
1257,593.00
1258,592.00
1259,591.00
1260,591.00
1261,591.00
1262,594.00
1263,596.00
1264,598.00
1265,603.00
1266,608.00
1267,614.00
1268,620.00
1269,625.00
1270,631.00
1271,634.00
1272,637.00
1273,639.00
1274,641.00
1275,642.00
1276,645.00
1277,647.00
1278,650.00
1279,650.00
1280,649.00
1281,648.00
1282,646.00
1283,644.00
1284,642.00
1285,638.00
1286,633.00
1287,626.00
1288,620.00
1289,611.00
1290,604.00
1291,595.00
1292,587.00
1293,578.00
1294,570.00
1295,561.00
1296,553.00
1297,548.00
1298,542.00
1299,537.00
1300,532.00
1301,526.00
1302,519.00
1303,514.00
1304,509.00
1305,504.00
1306,501.00
1307,498.00
1308,494.00
1309,492.00
1310,489.00
1311,486.00
1312,483.00
1313,481.00
1314,479.00
1315,475.00
1316,474.00
1317,472.00
1318,470.00
1319,468.00
1320,467.00
1321,465.00
1322,464.00
1323,462.00
1324,460.00
1325,459.00
1326,458.00
1327,456.00
1328,455.00
1329,454.00
1330,453.00
1331,453.00
1332,452.00
1333,451.00
1334,451.00
1335,450.00
1336,449.00
1337,448.00
1338,447.00
1339,447.00
1340,446.00
1341,447.00
1342,445.00
1343,445.00
1344,445.00
1345,443.00
1346,443.00
1347,443.00
1348,442.00
1349,442.00
1350,442.00
1351,441.00
1352,440.00
1353,440.00
1354,440.00
1355,439.00
1356,439.00
1357,438.00
1358,439.00
1359,438.00
1360,438.00
1361,438.00
1362,437.00
1363,437.00
1364,436.00
1365,437.00
1366,436.00
1367,436.00
1368,436.00
1369,436.00
1370,436.00
1371,436.00
1372,436.00
1373,436.00
1374,436.00
1375,438.00
1376,439.00
1377,442.00
1378,444.00
1379,446.00
1380,449.00
1381,451.00
1382,453.00
1383,455.00
1384,457.00
1385,461.00
1386,466.00
1387,470.00
1388,476.00
1389,480.00
1390,487.00
1391,494.00
1392,502.00
1393,509.00
1394,516.00
1395,524.00
1396,531.00
1397,539.00
1398,546.00
1399,553.00
1400,557.00
1401,562.00
1402,566.00
1403,571.00
1404,575.00
1405,578.00
1406,583.00
1407,586.00
1408,591.00
1409,595.00
1410,598.00
1411,600.00
1412,603.00
1413,604.00
1414,606.00
1415,606.00
1416,607.00
1417,607.00
1418,607.00
1419,608.00
1420,608.00
1421,609.00
1422,608.00
1423,607.00
1424,607.00
1425,607.00
1426,606.00
1427,606.00
1428,605.00
1429,604.00
1430,604.00
1431,603.00
1432,603.00
1433,601.00
1434,601.00
1435,600.00
1436,599.00
1437,598.00
1438,597.00
1439,596.00
1440,596.00
1441,596.00
1442,595.00
1443,594.00
1444,594.00
1445,595.00
1446,594.00
1447,593.00
1448,592.00
1449,591.00
1450,592.00
1451,591.00
1452,590.00
1453,588.00
1454,588.00
1455,587.00
1456,586.00
1457,586.00
1458,586.00
1459,588.00
1460,591.00
1461,596.00
1462,601.00
1463,608.00
1464,614.00
1465,621.00
1466,627.00
1467,633.00
1468,639.00
1469,645.00
1470,649.00
1471,648.00
1472,646.00
1473,645.00
1474,643.00
1475,640.00
1476,636.00
1477,631.00
1478,623.00
1479,614.00
1480,605.00
1481,596.00
1482,589.00
1483,582.00
1484,575.00
1485,569.00
1486,562.00
1487,555.00
1488,548.00
1489,543.00
1490,537.00
1491,531.00
1492,525.00
1493,518.00
1494,512.00
1495,505.00
1496,499.00
1497,494.00
1498,489.00
1499,485.00
1500,481.00
1501,479.00
1502,476.00
1503,473.00
1504,471.00
1505,470.00
1506,468.00
1507,466.00
1508,464.00
1509,464.00
1510,462.00
1511,461.00
1512,460.00
1513,459.00
1514,458.00
1515,456.00
1516,456.00
1517,455.00
1518,454.00
1519,454.00
1520,453.00
1521,452.00
1522,452.00
1523,451.00
1524,450.00
1525,450.00
1526,449.00
1527,449.00
1528,448.00
1529,448.00
1530,447.00
1531,447.00
1532,446.00
1533,446.00
1534,446.00
1535,445.00
1536,445.00
1537,444.00
1538,444.00
1539,444.00
1540,443.00
1541,443.00
1542,442.00
1543,442.00
1544,441.00
1545,442.00
1546,441.00
1547,441.00
1548,440.00
1549,440.00
1550,439.00
1551,439.00
1552,439.00
1553,439.00
1554,439.00
1555,438.00
1556,438.00
1557,437.00
1558,436.00
1559,437.00
1560,436.00
1561,436.00
1562,435.00
1563,436.00
1564,435.00
1565,435.00
1566,434.00
1567,434.00
1568,434.00
1569,434.00
1570,434.00
1571,434.00
1572,435.00
1573,435.00
1574,435.00
1575,436.00
1576,438.00
1577,441.00
1578,447.00
1579,450.00
1580,454.00
1581,459.00
1582,464.00
1583,470.00
1584,477.00
1585,487.00
1586,498.00
1587,509.00
1588,519.00
1589,529.00
1590,539.00
1591,549.00
1592,558.00
1593,568.00
1594,575.00
1595,581.00
1596,586.00
1597,591.00
1598,595.00
1599,599.00
1600,602.00
1601,604.00
1602,606.00
1603,606.00
1604,608.00
1605,609.00
1606,610.00
1607,610.00
1608,610.00
1609,609.00
1610,609.00
1611,608.00
1612,607.00
1613,607.00
1614,605.00
1615,604.00
1616,603.00
1617,601.00
1618,598.00
1619,597.00
1620,596.00
1621,594.00
1622,594.00
1623,593.00
1624,594.00
1625,594.00
1626,595.00
1627,595.00
1628,595.00
1629,595.00
1630,595.00
1631,595.00
1632,595.00
1633,594.00
1634,594.00
1635,594.00
1636,594.00
1637,594.00
1638,593.00
1639,593.00
1640,593.00
1641,593.00
1642,591.00
1643,591.00
1644,589.00
1645,588.00
1646,587.00
1647,588.00
1648,589.00
1649,591.00
1650,595.00
1651,600.00
1652,606.00
1653,610.00
1654,616.00
1655,620.00
1656,625.00
1657,628.00
1658,633.00
1659,637.00
1660,640.00
1661,643.00
1662,645.00
1663,646.00
1664,647.00
1665,646.00
1666,647.00
1667,644.00
1668,643.00
1669,640.00
1670,636.00
1671,631.00
1672,624.00
1673,616.00
1674,606.00
1675,596.00
1676,587.00
1677,578.00
1678,568.00
1679,559.00
1680,550.00
1681,541.00
1682,533.00
1683,525.00
1684,518.00
1685,512.00
1686,507.00
1687,503.00
1688,500.00
1689,497.00
1690,496.00
1691,494.00
1692,492.00
1693,491.00
1694,489.00
1695,487.00
1696,485.00
1697,484.00
1698,482.00
1699,480.00
1700,478.00
1701,475.00
1702,474.00
1703,472.00
1704,470.00
1705,470.00
1706,467.00
1707,466.00
1708,466.00
1709,464.00
1710,464.00
1711,463.00
1712,462.00
1713,461.00
1714,460.00
1715,459.00
1716,460.00
1717,459.00
1718,458.00
1719,457.00
1720,456.00
1721,455.00
1722,455.00
1723,454.00
1724,454.00
1725,454.00
1726,454.00
1727,453.00
1728,453.00
1729,452.00
1730,452.00
1731,452.00
1732,451.00
1733,451.00
1734,451.00
1735,450.00
1736,450.00
1737,450.00
1738,450.00
1739,451.00
1740,450.00
1741,450.00
1742,450.00
1743,449.00
1744,450.00
1745,450.00
1746,450.00
1747,450.00
1748,451.00
1749,451.00
1750,454.00
1751,455.00
1752,457.00
1753,460.00
1754,463.00
1755,467.00
1756,472.00
1757,477.00
